ENLIGHTEN Version,3.2.30
Measurement ID,,,20230419-151318-179828-WP-00643
Serial Number,,,WP-00643
Model,,,WP-785-R-SR-LMMF
Detector,,,S11511
Label,,,15:13:18 WP-00643
Declared Match,,,
Declared Score,,,0
Scan Averaging,,,100
Boxcar,,,0
Technique,,,
Baseline Correction Algo,,,
ROI Pixel Start,,,0
ROI Pixel End,,,1023
CCD C4,,,0
Slit Width,,,50
Vignetted,,,True
Interpolated,,,False
Wavenumber Correction,,,0
Raman Intensity Corrected,,,False
Deconvolved,,,False
Region,,,
Laser Power mW,,,
Battery %,,,
Device ID,,,<DeviceID USB USB:0x24aa:0x1000:20:7>
FW Version,,,10.0.0.7
FPGA Version,,,028-007
Integration Time,,,50
Timestamp,,,2023-04-19 15:13:18.179828
Note,,,
Temperature,,,10.044919776654524
CCD C0,,,801.6218872070312
CCD C1,,,0.14136843383312225
CCD C2,,,-5.6535209296271205e-06
CCD C3,,,-8.444376753402594e-09
CCD Offset,,,0
CCD Gain,,,1.9
CCD Offset Odd,,,0
CCD Gain Odd,,,1.9
Laser Wavelength,,,784.816
Laser Enable,,,True
Laser Power %,,,100.0
Laser Temperature,,,-95.6635622537485
Pixel Count,,,1024

WP-00643,,,15:13:18 WP-00643
Pixel,Wavelength,Wavenumber,Processed
0,801.62,267.13,6679.58
1,801.76,269.33,6971.14
2,801.90,271.53,7123.16
3,802.05,273.73,7219.39
4,802.19,275.92,7275.23
5,802.33,278.12,7333.68
6,802.47,280.31,7374.31
7,802.61,282.51,7435.89
8,802.75,284.70,7456.76
9,802.89,286.89,7506.02
10,803.03,289.08,7518.11
11,803.18,291.27,7549.34
12,803.32,293.46,7566.06
13,803.46,295.65,7592.87
14,803.60,297.84,7618.63
15,803.74,300.02,7625.44
16,803.88,302.21,7645.95
17,804.02,304.39,7665.19
18,804.16,306.58,7675.41
19,804.31,308.76,7676.90
20,804.45,310.94,7688.86
21,804.59,313.12,7713.38
22,804.73,315.30,7750.29
23,804.87,317.48,7765.42
24,805.01,319.66,7793.92
25,805.15,321.83,7817.99
26,805.29,324.01,7843.28
27,805.43,326.18,7882.58
28,805.58,328.36,7901.68
29,805.72,330.53,7906.75
30,805.86,332.70,7918.65
31,806.00,334.87,7943.12
32,806.14,337.04,7942.50
33,806.28,339.21,7974.36
34,806.42,341.38,7982.59
35,806.56,343.54,8010.26
36,806.70,345.71,8032.18
37,806.84,347.88,8040.93
38,806.99,350.04,8074.28
39,807.13,352.20,8093.25
40,807.27,354.37,8128.31
41,807.41,356.53,8144.54
42,807.55,358.69,8175.87
43,807.69,360.85,8206.19
44,807.83,363.00,8241.57
45,807.97,365.16,8272.73
46,808.11,367.32,8299.76
47,808.25,369.47,8324.83
48,808.39,371.63,8357.61
49,808.53,373.78,8371.38
50,808.68,375.93,8387.31
51,808.82,378.09,8400.80
52,808.96,380.24,8407.18
53,809.10,382.39,8433.30
54,809.24,384.54,8453.77
55,809.38,386.68,8477.03
56,809.52,388.83,8510.00
57,809.66,390.98,8525.34
58,809.80,393.12,8551.39
59,809.94,395.27,8577.34
60,810.08,397.41,8598.25
61,810.22,399.55,8607.90
62,810.36,401.69,8630.50
63,810.50,403.83,8671.73
64,810.64,405.97,8672.91
65,810.78,408.11,8693.50
66,810.93,410.25,8719.27
67,811.07,412.38,8748.82
68,811.21,414.52,8754.54
69,811.35,416.65,8801.18
70,811.49,418.79,8806.07
71,811.63,420.92,8815.88
72,811.77,423.05,8844.81
73,811.91,425.18,8854.23
74,812.05,427.31,8870.05
75,812.19,429.44,8876.08
76,812.33,431.56,8913.88
77,812.47,433.69,8931.69
78,812.61,435.82,8946.04
79,812.75,437.94,8969.60
80,812.89,440.07,8987.25
81,813.03,442.19,9012.62
82,813.17,444.31,9030.60
83,813.31,446.43,9049.48
84,813.45,448.55,9048.46
85,813.59,450.67,9086.54
86,813.73,452.79,9089.57
87,813.87,454.90,9104.66
88,814.01,457.02,9123.34
89,814.15,459.14,9135.97
90,814.29,461.25,9142.47
91,814.43,463.36,9160.68
92,814.57,465.47,9170.28
93,814.71,467.59,9172.12
94,814.85,469.70,9171.44
95,814.99,471.81,9176.88
96,815.13,473.91,9176.08
97,815.27,476.02,9184.00
98,815.41,478.13,9193.62
99,815.55,480.23,9199.55
100,815.69,482.34,9230.90
101,815.83,484.44,9247.04
102,815.97,486.54,9277.09
103,816.11,488.64,9291.73
104,816.25,490.74,9322.02
105,816.39,492.84,9352.87
106,816.53,494.94,9377.40
107,816.67,497.04,9413.85
108,816.81,499.14,9427.35
109,816.95,501.23,9464.87
110,817.09,503.33,9491.10
111,817.23,505.42,9517.98
112,817.37,507.51,9543.77
113,817.51,509.61,9573.65
114,817.65,511.70,9609.03
115,817.79,513.79,9619.36
116,817.93,515.88,9650.10
117,818.07,517.96,9688.29
118,818.21,520.05,9691.46
119,818.35,522.14,9735.44
120,818.49,524.22,9736.12
121,818.63,526.31,9760.03
122,818.77,528.39,9760.24
123,818.91,530.47,9778.16
124,819.05,532.55,9799.96
125,819.19,534.63,9808.91
126,819.33,536.71,9831.26
127,819.47,538.79,9861.24
128,819.61,540.87,9858.82
129,819.75,542.94,9904.47
130,819.89,545.02,9918.52
131,820.03,547.09,9930.27
132,820.16,549.17,9977.95
133,820.30,551.24,9981.30
134,820.44,553.31,10000.20
135,820.58,555.38,10035.26
136,820.72,557.45,10057.57
137,820.86,559.52,10066.93
138,821.00,561.59,10114.77
139,821.14,563.65,10161.01
140,821.28,565.72,10147.93
141,821.42,567.78,10186.46
142,821.56,569.85,10204.98
143,821.70,571.91,10209.05
144,821.84,573.97,10230.27
145,821.98,576.03,10227.20
146,822.11,578.09,10255.75
147,822.25,580.15,10257.28
148,822.39,582.21,10284.14
149,822.53,584.26,10302.53
150,822.67,586.32,10302.02
151,822.81,588.37,10317.59
152,822.95,590.43,10354.87
153,823.09,592.48,10342.06
154,823.23,594.53,10369.29
155,823.37,596.58,10368.69
156,823.51,598.63,10370.17
157,823.64,600.68,10400.12
158,823.78,602.73,10406.41
159,823.92,604.78,10422.44
160,824.06,606.82,10453.61
161,824.20,608.87,10469.89
162,824.34,610.91,10477.38
163,824.48,612.96,10501.38
164,824.62,615.00,10517.17
165,824.76,617.04,10539.14
166,824.89,619.08,10553.60
167,825.03,621.12,10578.17
168,825.17,623.16,10580.80
169,825.31,625.19,10608.84
170,825.45,627.23,10622.81
171,825.59,629.27,10656.12
172,825.73,631.30,10656.77
173,825.87,633.33,10701.98
174,826.00,635.37,10707.50
175,826.14,637.40,10723.36
176,826.28,639.43,10756.75
177,826.42,641.46,10773.21
178,826.56,643.49,10793.57
179,826.70,645.51,10801.69
180,826.84,647.54,10816.79
181,826.97,649.57,10826.59
182,827.11,651.59,10855.66
183,827.25,653.61,10847.07
184,827.39,655.64,10869.54
185,827.53,657.66,10911.25
186,827.67,659.68,10906.51
187,827.80,661.70,10951.76
188,827.94,663.72,10949.54
189,828.08,665.73,10974.15
190,828.22,667.75,10988.43
191,828.36,669.77,11003.29
192,828.50,671.78,11011.22
193,828.63,673.80,11024.15
194,828.77,675.81,11054.47
195,828.91,677.82,11062.29
196,829.05,679.83,11081.88
197,829.19,681.84,11113.29
198,829.33,683.85,11122.54
199,829.46,685.86,11141.26
200,829.60,687.87,11171.22
201,829.74,689.87,11188.41
202,829.88,691.88,11201.97
203,830.02,693.88,11216.49
204,830.15,695.88,11234.87
205,830.29,697.89,11241.71
206,830.43,699.89,11258.43
207,830.57,701.89,11276.28
208,830.71,703.89,11297.75
209,830.84,705.88,11288.14
210,830.98,707.88,11330.14
211,831.12,709.88,11336.49
212,831.26,711.87,11352.22
213,831.40,713.87,11375.23
214,831.53,715.86,11412.23
215,831.67,717.85,11406.30
216,831.81,719.84,11417.66
217,831.95,721.83,11455.34
218,832.08,723.82,11485.50
219,832.22,725.81,11478.78
220,832.36,727.80,11498.39
221,832.50,729.79,11549.29
222,832.63,731.77,11566.68
223,832.77,733.76,11576.52
224,832.91,735.74,11596.08
225,833.05,737.72,11602.95
226,833.18,739.70,11614.01
227,833.32,741.68,11640.00
228,833.46,743.66,11636.04
229,833.60,745.64,11641.56
230,833.73,747.62,11647.76
231,833.87,749.60,11682.74
232,834.01,751.57,11672.25
233,834.15,753.55,11689.21
234,834.28,755.52,11727.80
235,834.42,757.49,11722.44
236,834.56,759.46,11725.30
237,834.70,761.43,11742.12
238,834.83,763.40,11729.77
239,834.97,765.37,11755.51
240,835.11,767.34,11746.28
241,835.25,769.31,11769.30
242,835.38,771.27,11768.26
243,835.52,773.24,11775.96
244,835.66,775.20,11785.13
245,835.79,777.16,11822.58
246,835.93,779.13,11829.79
247,836.07,781.09,11819.13
248,836.20,783.05,11845.21
249,836.34,785.01,11856.33
250,836.48,786.96,11861.63
251,836.62,788.92,11863.50
252,836.75,790.88,11870.76
253,836.89,792.83,11885.60
254,837.03,794.78,11882.79
255,837.16,796.74,11888.67
256,837.30,798.69,11910.27
257,837.44,800.64,11911.83
258,837.57,802.59,11934.96
259,837.71,804.54,11945.31
260,837.85,806.49,11938.00
261,837.98,808.44,11960.05
262,838.12,810.38,11959.86
263,838.26,812.33,11975.79
264,838.39,814.27,11994.38
265,838.53,816.21,11987.31
266,838.67,818.16,12005.99
267,838.80,820.10,12026.36
268,838.94,822.04,12033.44
269,839.08,823.98,12057.50
270,839.21,825.91,12088.74
271,839.35,827.85,12100.42
272,839.49,829.79,12115.68
273,839.62,831.72,12161.53
274,839.76,833.66,12144.83
275,839.90,835.59,12174.51
276,840.03,837.52,12190.25
277,840.17,839.45,12193.03
278,840.30,841.38,12230.71
279,840.44,843.31,12230.14
280,840.58,845.24,12248.41
281,840.71,847.17,12290.33
282,840.85,849.10,12278.20
283,840.98,851.02,12311.06
284,841.12,852.95,12349.03
285,841.26,854.87,12337.29
286,841.39,856.79,12343.47
287,841.53,858.71,12350.86
288,841.67,860.63,12351.25
289,841.80,862.55,12359.91
290,841.94,864.47,12364.36
291,842.07,866.39,12369.99
292,842.21,868.31,12378.58
293,842.35,870.22,12390.90
294,842.48,872.14,12407.97
295,842.62,874.05,12406.59
296,842.75,875.96,12405.76
297,842.89,877.87,12420.26
298,843.02,879.78,12408.99
299,843.16,881.69,12418.18
300,843.30,883.60,12394.97
301,843.43,885.51,12412.86
302,843.57,887.42,12415.68
303,843.70,889.32,12417.67
304,843.84,891.23,12412.08
305,843.97,893.13,12458.77
306,844.11,895.03,12437.28
307,844.24,896.93,12445.98
308,844.38,898.84,12469.59
309,844.52,900.74,12457.57
310,844.65,902.63,12472.94
311,844.79,904.53,12480.01
312,844.92,906.43,12480.84
313,845.06,908.32,12494.68
314,845.19,910.22,12510.27
315,845.33,912.11,12534.05
316,845.46,914.01,12560.04
317,845.60,915.90,12557.57
318,845.73,917.79,12578.78
319,845.87,919.68,12605.55
320,846.00,921.57,12611.74
321,846.14,923.46,12647.91
322,846.27,925.34,12668.45
323,846.41,927.23,12666.18
324,846.54,929.11,12668.07
325,846.68,931.00,12687.36
326,846.81,932.88,12710.01
327,846.95,934.76,12705.52
328,847.08,936.64,12751.30
329,847.22,938.52,12766.89
330,847.35,940.40,12773.28
331,847.49,942.28,12788.21
332,847.62,944.16,12797.21
333,847.76,946.03,12789.29
334,847.89,947.91,12780.69
335,848.03,949.78,12789.07
336,848.16,951.65,12802.00
337,848.30,953.53,12816.51
338,848.43,955.40,12824.44
339,848.57,957.27,12784.43
340,848.70,959.14,12826.85
341,848.84,961.01,12815.74
342,848.97,962.87,12820.05
343,849.11,964.74,12833.63
344,849.24,966.60,12837.22
345,849.37,968.47,12843.42
346,849.51,970.33,12856.76
347,849.64,972.19,12848.64
348,849.78,974.05,12865.10
349,849.91,975.91,12848.23
350,850.05,977.77,12878.91
351,850.18,979.63,12884.44
352,850.31,981.49,12902.57
353,850.45,983.35,12928.32
354,850.58,985.20,12923.20
355,850.72,987.06,12929.04
356,850.85,988.91,12959.98
357,850.99,990.76,12966.22
358,851.12,992.61,12981.65
359,851.25,994.46,12985.12
360,851.39,996.31,13008.05
361,851.52,998.16,13006.16
362,851.66,1000.01,13020.00
363,851.79,1001.85,13042.63
364,851.92,1003.70,13051.25
365,852.06,1005.54,13078.12
366,852.19,1007.39,13082.30
367,852.33,1009.23,13102.79
368,852.46,1011.07,13096.63
369,852.59,1012.91,13108.70
370,852.73,1014.75,13101.15
371,852.86,1016.59,13125.01
372,852.99,1018.43,13103.58
373,853.13,1020.26,13134.93
374,853.26,1022.10,13123.32
375,853.39,1023.93,13110.89
376,853.53,1025.77,13153.79
377,853.66,1027.60,13148.01
378,853.80,1029.43,13155.00
379,853.93,1031.26,13168.76
380,854.06,1033.09,13165.47
381,854.20,1034.92,13156.82
382,854.33,1036.75,13164.47
383,854.46,1038.57,13150.01
384,854.60,1040.40,13142.73
385,854.73,1042.22,13149.90
386,854.86,1044.05,13149.88
387,855.00,1045.87,13166.35
388,855.13,1047.69,13193.60
389,855.26,1049.51,13189.17
390,855.39,1051.33,13202.99
391,855.53,1053.15,13206.33
392,855.66,1054.97,13190.02
393,855.79,1056.78,13208.76
394,855.93,1058.60,13218.51
395,856.06,1060.41,13225.98
396,856.19,1062.23,13210.78
397,856.33,1064.04,13252.59
398,856.46,1065.85,13240.06
399,856.59,1067.66,13256.00
400,856.72,1069.47,13277.30
401,856.86,1071.28,13304.59
402,856.99,1073.09,13300.64
403,857.12,1074.90,13318.99
404,857.26,1076.70,13358.48
405,857.39,1078.51,13365.02
406,857.52,1080.31,13353.96
407,857.65,1082.11,13361.99
408,857.79,1083.92,13367.68
409,857.92,1085.72,13382.39
410,858.05,1087.52,13406.49
411,858.18,1089.31,13406.37
412,858.32,1091.11,13417.95
413,858.45,1092.91,13456.66
414,858.58,1094.70,13450.87
415,858.71,1096.50,13489.53
416,858.84,1098.29,13465.65
417,858.98,1100.09,13503.10
418,859.11,1101.88,13518.72
419,859.24,1103.67,13507.26
420,859.37,1105.46,13507.47
421,859.51,1107.25,13521.76
422,859.64,1109.04,13540.02
423,859.77,1110.82,13535.77
424,859.90,1112.61,13566.89
425,860.03,1114.39,13579.16
426,860.17,1116.18,13556.40
427,860.30,1117.96,13587.81
428,860.43,1119.74,13602.22
429,860.56,1121.52,13590.04
430,860.69,1123.30,13576.23
431,860.83,1125.08,13553.17
432,860.96,1126.86,13584.84
433,861.09,1128.64,13614.34
434,861.22,1130.41,13598.79
435,861.35,1132.19,13590.61
436,861.48,1133.96,13604.23
437,861.62,1135.74,13610.79
438,861.75,1137.51,13593.97
439,861.88,1139.28,13622.86
440,862.01,1141.05,13639.35
441,862.14,1142.82,13604.76
442,862.27,1144.59,13616.75
443,862.40,1146.35,13589.39
444,862.54,1148.12,13592.02
445,862.67,1149.88,13586.01
446,862.80,1151.65,13585.20
447,862.93,1153.41,13596.57
448,863.06,1155.17,13598.94
449,863.19,1156.93,13606.25
450,863.32,1158.69,13617.44
451,863.45,1160.45,13627.60
452,863.59,1162.21,13618.51
453,863.72,1163.97,13611.69
454,863.85,1165.73,13599.67
455,863.98,1167.48,13606.19
456,864.11,1169.23,13571.80
457,864.24,1170.99,13625.96
458,864.37,1172.74,13600.03
459,864.50,1174.49,13605.16
460,864.63,1176.24,13624.70
461,864.76,1177.99,13644.07
462,864.89,1179.74,13647.57
463,865.03,1181.49,13666.88
464,865.16,1183.23,13665.84
465,865.29,1184.98,13664.91
466,865.42,1186.72,13665.32
467,865.55,1188.46,13651.09
468,865.68,1190.21,13674.27
469,865.81,1191.95,13663.37
470,865.94,1193.69,13674.72
471,866.07,1195.43,13705.13
472,866.20,1197.17,13673.98
473,866.33,1198.90,13716.53
474,866.46,1200.64,13731.62
475,866.59,1202.38,13722.13
476,866.72,1204.11,13725.43
477,866.85,1205.84,13730.67
478,866.98,1207.58,13739.93
479,867.11,1209.31,13733.88
480,867.24,1211.04,13715.20
481,867.37,1212.77,13736.96
482,867.50,1214.49,13743.53
483,867.63,1216.22,13737.83
484,867.76,1217.95,13773.55
485,867.89,1219.67,13783.37
486,868.02,1221.40,13766.94
487,868.15,1223.12,13787.37
488,868.28,1224.84,13783.09
489,868.41,1226.57,13770.15
490,868.54,1228.29,13777.24
491,868.67,1230.01,13774.90
492,868.80,1231.72,13778.53
493,868.93,1233.44,13784.97
494,869.06,1235.16,13789.18
495,869.19,1236.87,13768.10
496,869.32,1238.59,13799.77
497,869.45,1240.30,13805.17
498,869.58,1242.01,13799.97
499,869.71,1243.73,13843.15
500,869.84,1245.44,13811.17
501,869.97,1247.15,13804.05
502,870.10,1248.85,13854.88
503,870.23,1250.56,13824.63
504,870.35,1252.27,13821.77
505,870.48,1253.97,13863.55
506,870.61,1255.68,13873.64
507,870.74,1257.38,13872.54
508,870.87,1259.08,13886.55
509,871.00,1260.79,13894.67
510,871.13,1262.49,13898.77
511,871.26,1264.19,13925.62
512,871.39,1265.88,13923.11
513,871.52,1267.58,13924.83
514,871.64,1269.28,13934.38
515,871.77,1270.97,13935.24
516,871.90,1272.67,13938.18
517,872.03,1274.36,13923.18
518,872.16,1276.05,13936.15
519,872.29,1277.75,13941.11
520,872.42,1279.44,13951.81
521,872.55,1281.13,13940.44
522,872.67,1282.82,13932.38
523,872.80,1284.50,13930.78
524,872.93,1286.19,13927.53
525,873.06,1287.88,13904.59
526,873.19,1289.56,13913.30
527,873.32,1291.24,13883.65
528,873.45,1292.93,13896.12
529,873.57,1294.61,13897.83
530,873.70,1296.29,13883.70
531,873.83,1297.97,13888.88
532,873.96,1299.65,13898.15
533,874.09,1301.33,13887.80
534,874.21,1303.00,13894.34
535,874.34,1304.68,13871.35
536,874.47,1306.35,13852.34
537,874.60,1308.03,13836.67
538,874.73,1309.70,13832.77
539,874.85,1311.37,13797.60
540,874.98,1313.04,13791.26
541,875.11,1314.71,13798.56
542,875.24,1316.38,13792.59
543,875.37,1318.05,13813.46
544,875.49,1319.71,13819.57
545,875.62,1321.38,13797.13
546,875.75,1323.05,13773.23
547,875.88,1324.71,13793.16
548,876.00,1326.37,13777.56
549,876.13,1328.03,13751.66
550,876.26,1329.69,13747.68
551,876.39,1331.35,13744.98
552,876.51,1333.01,13764.86
553,876.64,1334.67,13740.45
554,876.77,1336.33,13759.16
555,876.90,1337.98,13780.65
556,877.02,1339.64,13755.76
557,877.15,1341.29,13781.19
558,877.28,1342.95,13778.44
559,877.41,1344.60,13793.69
560,877.53,1346.25,13781.34
561,877.66,1347.90,13772.21
562,877.79,1349.55,13786.62
563,877.91,1351.19,13763.87
564,878.04,1352.84,13778.08
565,878.17,1354.49,13775.72
566,878.29,1356.13,13782.56
567,878.42,1357.78,13784.71
568,878.55,1359.42,13793.52
569,878.67,1361.06,13807.60
570,878.80,1362.70,13810.90
571,878.93,1364.34,13808.01
572,879.05,1365.98,13819.12
573,879.18,1367.62,13826.50
574,879.31,1369.26,13804.20
575,879.43,1370.89,13797.22
576,879.56,1372.53,13814.75
577,879.69,1374.16,13803.64
578,879.81,1375.79,13806.94
579,879.94,1377.43,13817.54
580,880.07,1379.06,13786.95
581,880.19,1380.69,13820.97
582,880.32,1382.32,13810.56
583,880.44,1383.94,13803.23
584,880.57,1385.57,13800.03
585,880.70,1387.20,13793.89
586,880.82,1388.82,13773.62
587,880.95,1390.45,13748.91
588,881.08,1392.07,13742.91
589,881.20,1393.69,13734.61
590,881.33,1395.31,13735.03
591,881.45,1396.93,13732.73
592,881.58,1398.55,13742.27
593,881.70,1400.17,13701.99
594,881.83,1401.79,13708.40
595,881.96,1403.40,13699.35
596,882.08,1405.02,13662.09
597,882.21,1406.63,13665.72
598,882.33,1408.25,13652.50
599,882.46,1409.86,13660.65
600,882.58,1411.47,13658.89
601,882.71,1413.08,13651.79
602,882.83,1414.69,13631.56
603,882.96,1416.30,13641.99
604,883.09,1417.90,13643.22
605,883.21,1419.51,13634.49
606,883.34,1421.12,13648.27
607,883.46,1422.72,13638.73
608,883.59,1424.32,13626.62
609,883.71,1425.93,13605.79
610,883.84,1427.53,13620.47
611,883.96,1429.13,13598.90
612,884.09,1430.73,13627.84
613,884.21,1432.32,13610.55
614,884.34,1433.92,13647.15
615,884.46,1435.52,13639.28
616,884.59,1437.11,13618.77
617,884.71,1438.71,13636.95
618,884.84,1440.30,13642.50
619,884.96,1441.89,13650.31
620,885.08,1443.48,13640.69
621,885.21,1445.08,13657.31
622,885.33,1446.66,13651.07
623,885.46,1448.25,13640.96
624,885.58,1449.84,13659.83
625,885.71,1451.43,13648.92
626,885.83,1453.01,13663.98
627,885.96,1454.60,13684.03
628,886.08,1456.18,13652.63
629,886.20,1457.76,13667.50
630,886.33,1459.34,13676.09
631,886.45,1460.92,13658.11
632,886.58,1462.50,13663.55
633,886.70,1464.08,13621.92
634,886.83,1465.66,13641.33
635,886.95,1467.24,13636.31
636,887.07,1468.81,13640.10
637,887.20,1470.39,13627.92
638,887.32,1471.96,13648.99
639,887.44,1473.53,13618.59
640,887.57,1475.10,13625.91
641,887.69,1476.67,13617.36
642,887.82,1478.24,13630.65
643,887.94,1479.81,13606.48
644,888.06,1481.38,13578.60
645,888.19,1482.94,13591.55
646,888.31,1484.51,13567.24
647,888.43,1486.07,13557.43
648,888.56,1487.64,13549.63
649,888.68,1489.20,13546.93
650,888.80,1490.76,13532.40
651,888.93,1492.32,13495.07
652,889.05,1493.88,13517.26
653,889.17,1495.44,13498.48
654,889.30,1497.00,13488.47
655,889.42,1498.55,13456.64
656,889.54,1500.11,13482.74
657,889.67,1501.66,13436.17
658,889.79,1503.22,13417.10
659,889.91,1504.77,13417.65
660,890.03,1506.32,13431.42
661,890.16,1507.87,13407.38
662,890.28,1509.42,13417.33
663,890.40,1510.97,13408.06
664,890.53,1512.52,13410.04
665,890.65,1514.07,13393.23
666,890.77,1515.61,13406.16
667,890.89,1517.16,13404.02
668,891.02,1518.70,13406.86
669,891.14,1520.24,13385.35
670,891.26,1521.78,13375.75
