ENLIGHTEN Version,3.2.30
Measurement ID,,,20230419-151708-452683-WP-00643
Serial Number,,,WP-00643
Model,,,WP-785-R-SR-LMMF
Detector,,,S11511
Label,,,15:17:08 WP-00643
Declared Match,,,
Declared Score,,,0
Scan Averaging,,,100
Boxcar,,,0
Technique,,,
Baseline Correction Algo,,,
ROI Pixel Start,,,0
ROI Pixel End,,,1023
CCD C4,,,0
Slit Width,,,50
Vignetted,,,True
Interpolated,,,False
Wavenumber Correction,,,0
Raman Intensity Corrected,,,False
Deconvolved,,,False
Region,,,
Laser Power mW,,,
Battery %,,,
Device ID,,,<DeviceID USB USB:0x24aa:0x1000:20:7>
FW Version,,,10.0.0.7
FPGA Version,,,028-007
Integration Time,,,50
Timestamp,,,2023-04-19 15:17:08.452683
Note,,,
Temperature,,,10.02788583696173
CCD C0,,,801.6218872070312
CCD C1,,,0.14136843383312225
CCD C2,,,-5.6535209296271205e-06
CCD C3,,,-8.444376753402594e-09
CCD Offset,,,0
CCD Gain,,,1.9
CCD Offset Odd,,,0
CCD Gain Odd,,,1.9
Laser Wavelength,,,784.816
Laser Enable,,,True
Laser Power %,,,100.0
Laser Temperature,,,-95.6635622537485
Pixel Count,,,1024

WP-00643,,,15:17:08 WP-00643
Pixel,Wavelength,Wavenumber,Processed
0,801.62,267.13,32600.56
1,801.76,269.33,34159.77
2,801.90,271.53,35044.96
3,802.05,273.73,35561.14
4,802.19,275.92,35907.77
5,802.33,278.12,36180.67
6,802.47,280.31,36435.65
7,802.61,282.51,36723.86
8,802.75,284.70,36867.80
9,802.89,286.89,37078.30
10,803.03,289.08,37181.95
11,803.18,291.27,37309.15
12,803.32,293.46,37447.96
13,803.46,295.65,37515.54
14,803.60,297.84,37672.46
15,803.74,300.02,37747.41
16,803.88,302.21,37795.62
17,804.02,304.39,37872.47
18,804.16,306.58,37922.10
19,804.31,308.76,37941.96
20,804.45,310.94,38019.53
21,804.59,313.12,38080.18
22,804.73,315.30,38293.91
23,804.87,317.48,38336.28
24,805.01,319.66,38455.49
25,805.15,321.83,38631.65
26,805.29,324.01,38674.46
27,805.43,326.18,38844.30
28,805.58,328.36,38930.49
29,805.72,330.53,38973.44
30,805.86,332.70,39031.82
31,806.00,334.87,39102.36
32,806.14,337.04,39113.23
33,806.28,339.21,39231.68
34,806.42,341.38,39244.07
35,806.56,343.54,39362.40
36,806.70,345.71,39494.89
37,806.84,347.88,39510.05
38,806.99,350.04,39655.20
39,807.13,352.20,39730.31
40,807.27,354.37,39882.63
41,807.41,356.53,39972.02
42,807.55,358.69,40144.23
43,807.69,360.85,40223.39
44,807.83,363.00,40391.75
45,807.97,365.16,40485.98
46,808.11,367.32,40571.29
47,808.25,369.47,40690.23
48,808.39,371.63,40770.96
49,808.53,373.78,40776.40
50,808.68,375.93,40874.16
51,808.82,378.09,40909.69
52,808.96,380.24,40935.10
53,809.10,382.39,41030.68
54,809.24,384.54,41085.86
55,809.38,386.68,41172.29
56,809.52,388.83,41292.29
57,809.66,390.98,41382.82
58,809.80,393.12,41479.96
59,809.94,395.27,41585.57
60,810.08,397.41,41672.34
61,810.22,399.55,41716.69
62,810.36,401.69,41765.55
63,810.50,403.83,41928.92
64,810.64,405.97,41920.53
65,810.78,408.11,41987.61
66,810.93,410.25,42011.70
67,811.07,412.38,42166.71
68,811.21,414.52,42150.83
69,811.35,416.65,42329.89
70,811.49,418.79,42348.93
71,811.63,420.92,42377.60
72,811.77,423.05,42475.00
73,811.91,425.18,42477.81
74,812.05,427.31,42502.03
75,812.19,429.44,42567.03
76,812.33,431.56,42645.73
77,812.47,433.69,42719.05
78,812.61,435.82,42781.35
79,812.75,437.94,42925.06
80,812.89,440.07,42954.00
81,813.03,442.19,43011.42
82,813.17,444.31,43049.44
83,813.31,446.43,43139.39
84,813.45,448.55,43124.25
85,813.59,450.67,43197.17
86,813.73,452.79,43226.39
87,813.87,454.90,43216.68
88,814.01,457.02,43272.86
89,814.15,459.14,43319.33
90,814.29,461.25,43335.44
91,814.43,463.36,43382.86
92,814.57,465.47,43387.62
93,814.71,467.59,43419.94
94,814.85,469.70,43405.24
95,814.99,471.81,43407.25
96,815.13,473.91,43440.69
97,815.27,476.02,43444.76
98,815.41,478.13,43464.64
99,815.55,480.23,43436.27
100,815.69,482.34,43500.10
101,815.83,484.44,43536.81
102,815.97,486.54,43596.09
103,816.11,488.64,43605.41
104,816.25,490.74,43711.72
105,816.39,492.84,43820.43
106,816.53,494.94,43858.14
107,816.67,497.04,44005.28
108,816.81,499.14,44072.85
109,816.95,501.23,44203.31
110,817.09,503.33,44290.49
111,817.23,505.42,44395.99
112,817.37,507.51,44467.71
113,817.51,509.61,44554.54
114,817.65,511.70,44647.96
115,817.79,513.79,44709.61
116,817.93,515.88,44822.19
117,818.07,517.96,44937.34
118,818.21,520.05,44963.18
119,818.35,522.14,45104.73
120,818.49,524.22,45107.06
121,818.63,526.31,45163.25
122,818.77,528.39,45142.06
123,818.91,530.47,45120.46
124,819.05,532.55,45201.69
125,819.19,534.63,45220.51
126,819.33,536.71,45290.46
127,819.47,538.79,45396.95
128,819.61,540.87,45398.33
129,819.75,542.94,45495.65
130,819.89,545.02,45529.03
131,820.03,547.09,45542.77
132,820.16,549.17,45659.88
133,820.30,551.24,45652.35
134,820.44,553.31,45684.68
135,820.58,555.38,45803.31
136,820.72,557.45,45819.99
137,820.86,559.52,45847.37
138,821.00,561.59,45993.17
139,821.14,563.65,46146.38
140,821.28,565.72,46038.28
141,821.42,567.78,46211.73
142,821.56,569.85,46226.92
143,821.70,571.91,46245.97
144,821.84,573.97,46238.82
145,821.98,576.03,46193.87
146,822.11,578.09,46256.14
147,822.25,580.15,46171.02
148,822.39,582.21,46266.92
149,822.53,584.26,46298.77
150,822.67,586.32,46250.73
151,822.81,588.37,46259.25
152,822.95,590.43,46365.91
153,823.09,592.48,46256.67
154,823.23,594.53,46324.45
155,823.37,596.58,46260.41
156,823.51,598.63,46232.97
157,823.64,600.68,46297.00
158,823.78,602.73,46243.62
159,823.92,604.78,46278.47
160,824.06,606.82,46371.94
161,824.20,608.87,46404.12
162,824.34,610.91,46379.77
163,824.48,612.96,46454.56
164,824.62,615.00,46442.98
165,824.76,617.04,46530.01
166,824.89,619.08,46494.20
167,825.03,621.12,46587.31
168,825.17,623.16,46555.74
169,825.31,625.19,46594.69
170,825.45,627.23,46595.60
171,825.59,629.27,46709.59
172,825.73,631.30,46672.77
173,825.87,633.33,46821.17
174,826.00,635.37,46774.87
175,826.14,637.40,46807.94
176,826.28,639.43,46920.96
177,826.42,641.46,46885.78
178,826.56,643.49,46938.46
179,826.70,645.51,46910.25
180,826.84,647.54,46999.80
181,826.97,649.57,46950.92
182,827.11,651.59,47010.34
183,827.25,653.61,46978.57
184,827.39,655.64,46986.23
185,827.53,657.66,47021.00
186,827.67,659.68,47018.40
187,827.80,661.70,47130.16
188,827.94,663.72,47109.34
189,828.08,665.73,47158.21
190,828.22,667.75,47151.35
191,828.36,669.77,47158.38
192,828.50,671.78,47114.79
193,828.63,673.80,47141.24
194,828.77,675.81,47184.29
195,828.91,677.82,47146.09
196,829.05,679.83,47151.86
197,829.19,681.84,47223.90
198,829.33,683.85,47218.74
199,829.46,685.86,47242.24
200,829.60,687.87,47252.36
201,829.74,689.87,47248.57
202,829.88,691.88,47334.62
203,830.02,693.88,47305.54
204,830.15,695.88,47326.50
205,830.29,697.89,47291.76
206,830.43,699.89,47323.10
207,830.57,701.89,47336.70
208,830.71,703.89,47368.87
209,830.84,705.88,47323.92
210,830.98,707.88,47456.34
211,831.12,709.88,47477.73
212,831.26,711.87,47489.22
213,831.40,713.87,47538.39
214,831.53,715.86,47646.75
215,831.67,717.85,47590.12
216,831.81,719.84,47567.79
217,831.95,721.83,47700.93
218,832.08,723.82,47721.85
219,832.22,725.81,47647.23
220,832.36,727.80,47682.71
221,832.50,729.79,47813.22
222,832.63,731.77,47898.51
223,832.77,733.76,47897.21
224,832.91,735.74,47933.39
225,833.05,737.72,47906.23
226,833.18,739.70,47956.02
227,833.32,741.68,47950.49
228,833.46,743.66,47915.58
229,833.60,745.64,47857.01
230,833.73,747.62,47867.78
231,833.87,749.60,47931.96
232,834.01,751.57,47780.07
233,834.15,753.55,47801.99
234,834.28,755.52,47863.65
235,834.42,757.49,47829.12
236,834.56,759.46,47794.40
237,834.70,761.43,47775.36
238,834.83,763.40,47771.17
239,834.97,765.37,47734.25
240,835.11,767.34,47668.26
241,835.25,769.31,47703.66
242,835.38,771.27,47676.09
243,835.52,773.24,47622.41
244,835.66,775.20,47583.46
245,835.79,777.16,47651.81
246,835.93,779.13,47631.41
247,836.07,781.09,47537.42
248,836.20,783.05,47616.23
249,836.34,785.01,47533.72
250,836.48,786.96,47525.91
251,836.62,788.92,47466.13
252,836.75,790.88,47401.22
253,836.89,792.83,47386.97
254,837.03,794.78,47371.51
255,837.16,796.74,47344.39
256,837.30,798.69,47368.55
257,837.44,800.64,47288.06
258,837.57,802.59,47338.45
259,837.71,804.54,47307.31
260,837.85,806.49,47236.37
261,837.98,808.44,47263.16
262,838.12,810.38,47244.50
263,838.26,812.33,47199.88
264,838.39,814.27,47209.20
265,838.53,816.21,47204.51
266,838.67,818.16,47168.44
267,838.80,820.10,47223.24
268,838.94,822.04,47219.52
269,839.08,823.98,47253.83
270,839.21,825.91,47338.93
271,839.35,827.85,47335.42
272,839.49,829.79,47379.36
273,839.62,831.72,47477.30
274,839.76,833.66,47432.96
275,839.90,835.59,47508.59
276,840.03,837.52,47605.73
277,840.17,839.45,47522.88
278,840.30,841.38,47652.76
279,840.44,843.31,47624.84
280,840.58,845.24,47637.04
281,840.71,847.17,47754.56
282,840.85,849.10,47662.29
283,840.98,851.02,47715.47
284,841.12,852.95,47738.01
285,841.26,854.87,47636.21
286,841.39,856.79,47630.41
287,841.53,858.71,47576.13
288,841.67,860.63,47476.37
289,841.80,862.55,47470.47
290,841.94,864.47,47435.80
291,842.07,866.39,47389.92
292,842.21,868.31,47332.81
293,842.35,870.22,47336.32
294,842.48,872.14,47304.76
295,842.62,874.05,47254.07
296,842.75,875.96,47187.09
297,842.89,877.87,47148.98
298,843.02,879.78,47072.70
299,843.16,881.69,47027.72
300,843.30,883.60,46859.07
301,843.43,885.51,46915.55
302,843.57,887.42,46900.11
303,843.70,889.32,46871.16
304,843.84,891.23,46802.67
305,843.97,893.13,46894.01
306,844.11,895.03,46786.79
307,844.24,896.93,46766.86
308,844.38,898.84,46764.92
309,844.52,900.74,46661.31
310,844.65,902.63,46649.81
311,844.79,904.53,46598.87
312,844.92,906.43,46558.09
313,845.06,908.32,46577.54
314,845.19,910.22,46561.26
315,845.33,912.11,46554.15
316,845.46,914.01,46623.74
317,845.60,915.90,46589.24
318,845.73,917.79,46592.40
319,845.87,919.68,46633.18
320,846.00,921.57,46604.12
321,846.14,923.46,46648.10
322,846.27,925.34,46657.24
323,846.41,927.23,46631.91
324,846.54,929.11,46580.45
325,846.68,931.00,46655.76
326,846.81,932.88,46680.19
327,846.95,934.76,46561.80
328,847.08,936.64,46693.00
329,847.22,938.52,46699.33
330,847.35,940.40,46687.55
331,847.49,942.28,46640.56
332,847.62,944.16,46647.46
333,847.76,946.03,46551.08
334,847.89,947.91,46448.88
335,848.03,949.78,46351.78
336,848.16,951.65,46331.58
337,848.30,953.53,46306.06
338,848.43,955.40,46311.39
339,848.57,957.27,46091.54
340,848.70,959.14,46219.57
341,848.84,961.01,46122.51
342,848.97,962.87,46106.60
343,849.11,964.74,46100.00
344,849.24,966.60,46054.89
345,849.37,968.47,46038.58
346,849.51,970.33,46009.72
347,849.64,972.19,45936.33
348,849.78,974.05,45919.99
349,849.91,975.91,45841.19
350,850.05,977.77,45874.73
351,850.18,979.63,45809.33
352,850.31,981.49,45834.88
353,850.45,983.35,45872.27
354,850.58,985.20,45830.23
355,850.72,987.06,45811.87
356,850.85,988.91,45871.92
357,850.99,990.76,45840.21
358,851.12,992.61,45836.16
359,851.25,994.46,45805.26
360,851.39,996.31,45814.49
361,851.52,998.16,45786.37
362,851.66,1000.01,45793.13
363,851.79,1001.85,45774.90
364,851.92,1003.70,45819.24
365,852.06,1005.54,45870.24
366,852.19,1007.39,45837.05
367,852.33,1009.23,45841.89
368,852.46,1011.07,45807.45
369,852.59,1012.91,45769.83
370,852.73,1014.75,45703.98
371,852.86,1016.59,45753.89
372,852.99,1018.43,45598.99
373,853.13,1020.26,45675.83
374,853.26,1022.10,45586.51
375,853.39,1023.93,45508.54
376,853.53,1025.77,45579.39
377,853.66,1027.60,45531.27
378,853.80,1029.43,45522.15
379,853.93,1031.26,45529.75
380,854.06,1033.09,45486.69
381,854.20,1034.92,45399.35
382,854.33,1036.75,45418.57
383,854.46,1038.57,45285.73
384,854.60,1040.40,45252.92
385,854.73,1042.22,45236.62
386,854.86,1044.05,45179.85
387,855.00,1045.87,45213.59
388,855.13,1047.69,45258.50
389,855.26,1049.51,45210.29
390,855.39,1051.33,45186.30
391,855.53,1053.15,45142.34
392,855.66,1054.97,45077.32
393,855.79,1056.78,45072.25
394,855.93,1058.60,45029.26
395,856.06,1060.41,44995.43
396,856.19,1062.23,44902.12
397,856.33,1064.04,44975.90
398,856.46,1065.85,44883.42
399,856.59,1067.66,44922.42
400,856.72,1069.47,44926.73
401,856.86,1071.28,44986.14
402,856.99,1073.09,44949.67
403,857.12,1074.90,44985.64
404,857.26,1076.70,45070.13
405,857.39,1078.51,45050.17
406,857.52,1080.31,44961.01
407,857.65,1082.11,44972.24
408,857.79,1083.92,44929.82
409,857.92,1085.72,44904.66
410,858.05,1087.52,44923.42
411,858.18,1089.31,44846.67
412,858.32,1091.11,44808.10
413,858.45,1092.91,44876.50
414,858.58,1094.70,44815.11
415,858.71,1096.50,44841.70
416,858.84,1098.29,44747.74
417,858.98,1100.09,44788.65
418,859.11,1101.88,44789.58
419,859.24,1103.67,44713.14
420,859.37,1105.46,44640.30
421,859.51,1107.25,44691.93
422,859.64,1109.04,44706.73
423,859.77,1110.82,44646.94
424,859.90,1112.61,44663.61
425,860.03,1114.39,44658.61
426,860.17,1116.18,44623.70
427,860.30,1117.96,44631.17
428,860.43,1119.74,44645.63
429,860.56,1121.52,44582.42
430,860.69,1123.30,44489.21
431,860.83,1125.08,44354.31
432,860.96,1126.86,44374.93
433,861.09,1128.64,44386.05
434,861.22,1130.41,44302.71
435,861.35,1132.19,44212.49
436,861.48,1133.96,44192.01
437,861.62,1135.74,44139.86
438,861.75,1137.51,44019.29
439,861.88,1139.28,44032.92
440,862.01,1141.05,44009.54
441,862.14,1142.82,43840.63
442,862.27,1144.59,43812.91
443,862.40,1146.35,43687.75
444,862.54,1148.12,43657.65
445,862.67,1149.88,43585.85
446,862.80,1151.65,43501.50
447,862.93,1153.41,43442.68
448,863.06,1155.17,43399.51
449,863.19,1156.93,43365.86
450,863.32,1158.69,43324.32
451,863.45,1160.45,43269.44
452,863.59,1162.21,43215.55
453,863.72,1163.97,43142.64
454,863.85,1165.73,43073.07
455,863.98,1167.48,43008.38
456,864.11,1169.23,42812.89
457,864.24,1170.99,42896.50
458,864.37,1172.74,42809.57
459,864.50,1174.49,42755.22
460,864.63,1176.24,42758.13
461,864.76,1177.99,42744.86
462,864.89,1179.74,42694.74
463,865.03,1181.49,42704.44
464,865.16,1183.23,42666.46
465,865.29,1184.98,42590.87
466,865.42,1186.72,42550.53
467,865.55,1188.46,42510.30
468,865.68,1190.21,42527.14
469,865.81,1191.95,42457.50
470,865.94,1193.69,42431.83
471,866.07,1195.43,42446.84
472,866.20,1197.17,42321.86
473,866.33,1198.90,42411.28
474,866.46,1200.64,42385.10
475,866.59,1202.38,42355.61
476,866.72,1204.11,42316.16
477,866.85,1205.84,42299.94
478,866.98,1207.58,42251.33
479,867.11,1209.31,42212.43
480,867.24,1211.04,42101.00
481,867.37,1212.77,42144.61
482,867.50,1214.49,42120.54
483,867.63,1216.22,42014.81
484,867.76,1217.95,42067.74
485,867.89,1219.67,42053.92
486,868.02,1221.40,41924.24
487,868.15,1223.12,41937.63
488,868.28,1224.84,41895.50
489,868.41,1226.57,41819.34
490,868.54,1228.29,41761.50
491,868.67,1230.01,41745.72
492,868.80,1231.72,41723.43
493,868.93,1233.44,41711.72
494,869.06,1235.16,41682.10
495,869.19,1236.87,41583.77
496,869.32,1238.59,41598.56
497,869.45,1240.30,41604.01
498,869.58,1242.01,41520.69
499,869.71,1243.73,41618.96
500,869.84,1245.44,41481.42
501,869.97,1247.15,41452.53
502,870.10,1248.85,41511.25
503,870.23,1250.56,41393.81
504,870.35,1252.27,41356.05
505,870.48,1253.97,41403.63
506,870.61,1255.68,41369.09
507,870.74,1257.38,41317.90
508,870.87,1259.08,41344.87
509,871.00,1260.79,41326.17
510,871.13,1262.49,41285.85
511,871.26,1264.19,41318.47
512,871.39,1265.88,41244.00
513,871.52,1267.58,41210.84
514,871.64,1269.28,41204.46
515,871.77,1270.97,41137.21
516,871.90,1272.67,41094.47
517,872.03,1274.36,41008.72
518,872.16,1276.05,41024.96
519,872.29,1277.75,40955.53
520,872.42,1279.44,40925.51
521,872.55,1281.13,40890.43
522,872.67,1282.82,40789.51
523,872.80,1284.50,40747.02
524,872.93,1286.19,40666.29
525,873.06,1287.88,40593.76
526,873.19,1289.56,40595.12
527,873.32,1291.24,40453.47
528,873.45,1292.93,40445.02
529,873.57,1294.61,40361.41
530,873.70,1296.29,40269.08
531,873.83,1297.97,40250.74
532,873.96,1299.65,40251.22
533,874.09,1301.33,40164.33
534,874.21,1303.00,40165.04
535,874.34,1304.68,40055.82
536,874.47,1306.35,39931.17
537,874.60,1308.03,39873.14
538,874.73,1309.70,39805.45
539,874.85,1311.37,39705.13
540,874.98,1313.04,39642.15
541,875.11,1314.71,39612.82
542,875.24,1316.38,39533.46
543,875.37,1318.05,39573.53
544,875.49,1319.71,39524.02
545,875.62,1321.38,39496.07
546,875.75,1323.05,39399.91
547,875.88,1324.71,39394.81
548,876.00,1326.37,39331.95
549,876.13,1328.03,39229.98
550,876.26,1329.69,39203.73
551,876.39,1331.35,39133.62
552,876.51,1333.01,39154.50
553,876.64,1334.67,39050.16
554,876.77,1336.33,39010.11
555,876.90,1337.98,39052.39
556,877.02,1339.64,38966.78
557,877.15,1341.29,38985.15
558,877.28,1342.95,38922.74
559,877.41,1344.60,38927.18
560,877.53,1346.25,38844.96
561,877.66,1347.90,38752.48
562,877.79,1349.55,38778.53
563,877.91,1351.19,38630.37
564,878.04,1352.84,38597.52
565,878.17,1354.49,38573.22
566,878.29,1356.13,38544.29
567,878.42,1357.78,38488.23
568,878.55,1359.42,38467.10
569,878.67,1361.06,38475.14
570,878.80,1362.70,38431.22
571,878.93,1364.34,38375.17
572,879.05,1365.98,38347.13
573,879.18,1367.62,38322.95
574,879.31,1369.26,38244.49
575,879.43,1370.89,38168.85
576,879.56,1372.53,38161.59
577,879.69,1374.16,38106.58
578,879.81,1375.79,38097.41
579,879.94,1377.43,38059.19
580,880.07,1379.06,37909.07
581,880.19,1380.69,37941.15
582,880.32,1382.32,37880.15
583,880.44,1383.94,37830.58
584,880.57,1385.57,37767.60
585,880.70,1387.20,37698.84
586,880.82,1388.82,37601.44
587,880.95,1390.45,37525.43
588,881.08,1392.07,37446.44
589,881.20,1393.69,37413.27
590,881.33,1395.31,37341.50
591,881.45,1396.93,37326.44
592,881.58,1398.55,37284.30
593,881.70,1400.17,37172.10
594,881.83,1401.79,37138.14
595,881.96,1403.40,37051.38
596,882.08,1405.02,36933.38
597,882.21,1406.63,36868.55
598,882.33,1408.25,36807.68
599,882.46,1409.86,36762.92
600,882.58,1411.47,36686.10
601,882.71,1413.08,36645.99
602,882.83,1414.69,36552.04
603,882.96,1416.30,36516.89
604,883.09,1417.90,36489.09
605,883.21,1419.51,36382.10
606,883.34,1421.12,36360.11
607,883.46,1422.72,36319.46
608,883.59,1424.32,36269.43
609,883.71,1425.93,36122.31
610,883.84,1427.53,36136.04
611,883.96,1429.13,36040.65
612,884.09,1430.73,36071.91
613,884.21,1432.32,36006.39
614,884.34,1433.92,36013.82
615,884.46,1435.52,35990.13
616,884.59,1437.11,35911.71
617,884.71,1438.71,35945.15
618,884.84,1440.30,35908.18
619,884.96,1441.89,35872.50
620,885.08,1443.48,35843.43
621,885.21,1445.08,35825.54
622,885.33,1446.66,35793.69
623,885.46,1448.25,35730.75
624,885.58,1449.84,35768.50
625,885.71,1451.43,35714.14
626,885.83,1453.01,35714.25
627,885.96,1454.60,35713.80
628,886.08,1456.18,35644.79
629,886.20,1457.76,35634.95
630,886.33,1459.34,35630.26
631,886.45,1460.92,35528.43
632,886.58,1462.50,35510.06
633,886.70,1464.08,35331.02
634,886.83,1465.66,35307.52
635,886.95,1467.24,35233.57
636,887.07,1468.81,35162.33
637,887.20,1470.39,35107.43
638,887.32,1471.96,35057.51
639,887.44,1473.53,34934.31
640,887.57,1475.10,34885.27
641,887.69,1476.67,34790.59
642,887.82,1478.24,34755.13
643,887.94,1479.81,34633.93
644,888.06,1481.38,34504.46
645,888.19,1482.94,34494.37
646,888.31,1484.51,34356.25
647,888.43,1486.07,34274.45
648,888.56,1487.64,34195.47
649,888.68,1489.20,34172.41
650,888.80,1490.76,34056.71
651,888.93,1492.32,33912.74
652,889.05,1493.88,33932.88
653,889.17,1495.44,33876.65
654,889.30,1497.00,33758.49
655,889.42,1498.55,33640.87
656,889.54,1500.11,33639.85
657,889.67,1501.66,33492.61
658,889.79,1503.22,33421.44
659,889.91,1504.77,33360.93
660,890.03,1506.32,33353.50
661,890.16,1507.87,33266.02
662,890.28,1509.42,33233.28
663,890.40,1510.97,33190.60
664,890.53,1512.52,33156.32
665,890.65,1514.07,33078.55
